T (C)	Fraction solid (wt)-TOTAL	Fraction liquid (wt)-LIQUID	Density (g/(cm)^3)-TOTAL	Volume change (%)-  	Average expansion coeff. (10e-6 1/K)-  	Thermal conductivity (W/(m*K))-TOTAL	Electrical conductivity (10e6 1/(Ohm*m))-TOTAL	Young's modulus (GPa)-TOTAL	Poisson's ratio-TOTAL	Enthalpy (J/mole)-TOTAL	Specific heat (J/(mole K))-TOTAL	Latent heat (J/mole)-TOTAL
400.0	0.0	1.0	8.50964	0.0	1.9877	25.2708	1.53229	0.0	0.5	19492.94	 	0.0
395.0	0.0	1.0	8.51467	-0.0590625	1.48128	25.19004	1.53882	0.0	0.5	19349.754	28.6372	0.0
390.0	0.0	1.0	8.51969	-0.11799	0.96218	25.10929	1.54546	0.0	0.5	19206.475	28.6558	0.0
385.0	0.0	1.0	8.52471	-0.17679	0.42989	25.02856	1.55219	0.0	0.5	19063.096	28.6758	0.0
380.0	0.0	1.0	8.52972	-0.23546	-0.11617	24.94785	1.55903	0.0	0.5	18919.612	28.6968	0.0
375.0	0.0	1.0	8.53473	-0.294	-0.67657	24.86716	1.56597	0.0	0.5	18776.016	28.7192	0.0
370.0	0.0	1.0	8.53973	-0.35241	-1.25195	24.78648	1.57303	0.0	0.5	18632.301	28.743	0.0
365.0	0.0	1.0	8.54473	-0.41068	-1.84296	24.70582	1.58019	0.0	0.5	18488.459	28.7684	0.0
360.0	0.0	1.0	8.54972	-0.46882	-2.4503	24.62518	1.58747	0.0	0.5	18344.482	28.7954	0.0
355.0	0.0	1.0	8.55471	-0.52684	-3.07472	24.54455	1.59487	0.0	0.5	18200.361	28.8242	0.0
350.0	0.0	1.0	8.55969	-0.58472	-3.717	24.46395	1.60239	0.0	0.5	18056.087	28.8548	0.0
345.0	0.0	1.0	8.56466	-0.64247	-4.37798	24.38335	1.61003	0.0	0.5	17911.649	28.8876	0.0
340.0	0.0	1.0	8.56963	-0.70008	-5.05855	24.30278	1.61779	0.0	0.5	17767.037	28.9224	0.0
335.0	0.0	1.0	8.5746	-0.75757	-5.75966	24.22223	1.62569	0.0	0.5	17622.238	28.9598	0.0
330.0	0.0	1.0	8.57956	-0.81493	-6.48232	24.14169	1.63371	0.0	0.5	17477.242	28.9992	0.0
325.0	0.0	1.0	8.58451	-0.87215	-7.2276	24.06116	1.64188	0.0	0.5	17332.034	29.0416	0.0
320.0	0.0	1.0	8.58946	-0.92924	-7.99667	23.98066	1.65018	0.0	0.5	17186.6	29.0868	0.0
315.0	0.0	1.0	8.5944	-0.98621	-8.79074	23.90017	1.65862	0.0	0.5	17040.926	29.1348	0.0
310.0	0.0	1.0	8.59933	-1.04304	-9.61113	23.8197	1.66721	0.0	0.5	16894.997	29.1858	0.0
305.0	0.0	1.0	8.60426	-1.09973	-10.45926	23.73925	1.67595	0.0	0.5	16748.796	29.2402	0.0
300.0	0.0	1.0	8.60919	-1.1563	-11.33663	23.65882	1.68484	0.0	0.5	16602.304	29.2984	0.0
295.0	0.0	1.0	8.61411	-1.21274	-12.24487	23.5784	1.69389	0.0	0.5	16455.505	29.3598	0.0
290.0	0.0	1.0	8.61902	-1.26904	-13.18573	23.498	1.7031	0.0	0.5	16308.378	29.4254	0.0
285.0	0.0	1.0	8.62393	-1.32522	-14.16109	23.41761	1.71248	0.0	0.5	16160.903	29.495	0.0
280.0	0.0	1.0	8.62883	-1.38126	-15.17298	23.33725	1.72203	0.0	0.5	16013.057	29.5692	0.0
275.0	0.0	1.0	8.63372	-1.43717	-16.22359	23.2569	1.73175	0.0	0.5	15864.819	29.6476	0.0
270.0	0.0	1.0	8.63861	-1.49295	-17.31529	23.17657	1.74166	0.0	0.5	15716.191	29.7256	0.0
265.0	0.0	1.0	8.64349	-1.5486	-18.45066	23.09625	1.75175	0.0	0.5	15567.636	29.711	0.0
260.0	0.0	1.0	8.64837	-1.60412	-19.63247	23.01596	1.76203	0.0	0.5	15419.315	29.6642	0.0
255.0	0.0	1.0	8.65324	-1.6595	-20.86375	22.93568	1.77251	0.0	0.5	15271.211	29.6208	0.0
250.0	0.0	1.0	8.65811	-1.71476	-22.14781	22.85541	1.78319	0.0	0.5	15123.306	29.581	0.0
245.0	0.0	1.0	8.66296	-1.76988	-23.48824	22.77517	1.79407	0.0	0.5	14975.582	29.5448	0.0
240.0	0.0	1.0	8.66782	-1.82488	-24.88898	22.69494	1.80517	0.0	0.5	14828.022	29.512	0.0
235.0	0.0	1.0	8.67266	-1.87974	-26.35433	22.61473	1.81649	0.0	0.5	14680.606	29.4832	0.0
230.0	0.0	1.0	8.6775	-1.93447	-27.88902	22.53454	1.82804	0.0	0.5	14533.336	29.454	0.0
225.0	0.0	1.0	8.68234	-1.98906	-29.49825	22.45436	1.83982	0.0	0.5	14386.407	29.3858	0.0
220.0	0.0	1.0	8.68716	-2.04353	-31.18776	22.3742	1.85184	0.0	0.5	14239.872	29.307	0.0
215.0	0.0	1.0	8.69199	-2.09787	-32.96388	22.29406	1.8641	0.0	0.5	14093.733	29.2278	0.0
210.0	0.0	1.0	8.6968	-2.15207	-34.83364	22.21394	1.87662	0.0	0.5	13947.991	29.1484	0.0
205.0	0.0	1.0	8.70161	-2.20614	-36.80483	22.13383	1.88941	0.0	0.5	13802.646	29.069	0.0
200.0	0.0	1.0	8.70641	-2.26009	-38.88616	22.05374	1.90247	0.0	0.5	13657.699	28.9894	0.0
195.0	0.0	1.0	8.71121	-2.3139	-41.08734	21.97367	1.91581	0.0	0.5	13513.15	28.9098	0.0
190.0	0.0	1.0	8.716	-2.36758	-43.41927	21.89361	1.92943	0.0	0.5	13368.999	28.8302	0.0
185.0	0.0	1.0	8.72078	-2.42112	-45.89419	21.81357	1.94336	0.0	0.5	13225.247	28.7504	0.0
180.0	0.0	1.0	8.72556	-2.47454	-48.52597	21.73355	1.95759	0.0	0.5	13081.893	28.6708	0.0
175.0	0.0	1.0	8.73033	-2.52783	-51.33027	21.65355	1.97215	0.0	0.5	12938.936	28.5914	0.0
170.0	0.0	1.0	8.73509	-2.58098	-54.32494	21.57356	1.98703	0.0	0.5	12796.375	28.5122	0.0
165.0	0.0	1.0	8.73985	-2.634	-57.53038	21.49359	2.00226	0.0	0.5	12654.211	28.4328	0.0
160.0	0.0	1.0	8.7446	-2.68689	-60.97002	21.41364	2.01784	0.0	0.5	12512.44	28.3542	0.0
155.0	0.0	1.0	8.74934	-2.73965	-64.67087	21.33371	2.03378	0.0	0.5	12371.064	28.2752	0.0
150.0	0.0	1.0	8.75408	-2.79228	-68.66428	21.25379	2.0501	0.0	0.5	12230.097	28.1934	0.0
145.0	0.0	1.0	8.75881	-2.84478	-72.98682	21.17389	2.06682	0.0	0.5	12089.544	28.1106	0.0
140.0	0.0	1.0	8.76353	-2.89715	-77.68142	21.09401	2.08394	0.0	0.5	11949.401	28.0286	0.0
135.2	0.0	1.0	8.76806	-2.94734	-82.59002	21.01726	2.10079	0.0	0.5	11815.125	27.9483	0.0
135.1	0.00102	0.99898	8.7681	-2.94776	-82.67147	21.02768	2.1023	7.39357E-11	0.49983	11805.003	 	7.564
135.0	0.03429	0.96571	8.75897	-2.84679	-79.68295	20.96453	2.09652	1.00889E-5	0.49457	11540.636	1403.68	269.032
130.0	0.75996	0.24004	8.56126	-0.60244	-12.06877	18.26583	1.8493	8.78318	0.38304	5799.561	1148.22	5870.78
125.0	0.87894	0.12106	8.53021	-0.24093	-0.595	18.57853	1.90458	20.15177	0.36535	4758.624	208.187	6772.795
120.0	0.92386	0.07614	8.5192	-0.1118	3.91471	18.90729	1.96293	25.90178	0.35875	4285.263	94.6722	7107.634
115.0	0.9463	0.053697	8.51431	-0.0543637	6.26413	19.13897	2.01258	29.08393	0.35548	3982.222	60.6082	7272.553
110.0	0.95931	0.040693	8.51201	-0.0274937	7.68869	19.31207	2.05728	31.08976	0.35361	3750.055	46.4334	7366.994
105.0	0.96758	0.032416	8.51104	-0.0159767	8.65017	19.45168	2.09955	32.48512	0.35242	3553.142	39.3826	7426.571
100.0	0.97321	0.026786	8.51081	-0.0133389	9.34435	19.57232	2.14088	33.53076	0.35161	3375.938	35.4408	7466.829
95.0	0.97724	0.022762	8.51105	-0.0160485	9.88249	19.68128	2.18204	34.36005	0.35104	3210.732	33.0412	7495.472
90.0	0.98023	0.019773	8.51158	-0.0223646	10.31805	19.78368	2.22359	35.04733	0.35062	3053.337	31.479	7516.685
85.0	0.98252	0.017485	8.51231	-0.0311168	10.69057	19.88216	2.26586	35.63674	0.3503	2901.314	30.4046	7532.902
80.0	0.98431	0.015689	8.5132	-0.0414476	11.03493	19.97819	2.30904	36.15587	0.35005	2753.158	29.6312	7545.624
75.77	0.98555	0.014454	8.51402	-0.0512381	11.31016	20.05883	2.34646	36.55366	0.34987	2630.112	 	7554.371
75.77	1.0	0.0	8.51426	-0.0539099	11.13434	20.16639	2.35905	38.57881	0.34818	2538.074	 	7646.409
70.0	1.0	0.0	8.51592	-0.0734311	11.1127	20.26594	2.41055	38.8879	0.34818	2382.375	37.0783	 
65.0	1.0	0.0	8.51736	-0.0902876	11.09393	20.35475	2.45692	39.15193	0.34818	2247.848	26.9054	 
60.0	1.0	0.0	8.51879	-0.10709	11.07517	20.44605	2.50498	39.4124	0.34818	2113.687	26.8322	 
55.0	1.0	0.0	8.52022	-0.12383	11.05641	20.53993	2.55482	39.66934	0.34818	1979.885	26.7604	 
50.0	1.0	0.0	8.52164	-0.14052	11.03765	20.63653	2.60655	39.92274	0.34818	1846.435	26.69	 
45.0	1.0	0.0	8.52306	-0.15715	11.01889	20.73597	2.66027	40.17262	0.34818	1713.328	26.6214	 
40.0	1.0	0.0	8.52447	-0.17373	11.00013	20.83837	2.7161	40.41898	0.34818	1580.558	26.554	 
35.0	1.0	0.0	8.52589	-0.19025	10.98136	20.94389	2.77414	40.66183	0.34818	1448.116	26.4884	 
30.0	1.0	0.0	8.52729	-0.20671	10.9626	21.05267	2.83455	40.90118	0.34818	1315.993	26.4246	 
25.0	1.0	0.0	8.52869	-0.22312	 	21.16488	2.89744	41.13703	0.34819	1184.181	 	 
